Wavelength (nm),Power (W)
1549.0,0.0056643961
1549.001,0.00565750292
1549.002,0.0056583304
1549.003,0.00566163938
1549.004,0.0056666024
1549.005,0.00565667637
1549.006,0.00565750292
1549.007,0.00566191506
1549.008,0.0056608119
1549.009,0.00566026056
1549.01,0.00565860607
1549.011,0.00566136371
1549.012,0.00566108758
1549.013,0.00566301728
1549.014,0.00565502187
1549.015,0.00566632627
1549.016,0.00565722771
1549.017,0.00565529754
1549.018,0.00565584889
1549.019,0.00565364305
1549.02,0.00566549925
1549.021,0.00565667637
1549.022,0.00566136371
1549.023,0.00565998489
1549.024,0.00565198902
1549.025,0.00566329341
1549.026,0.00565750292
1549.027,0.00565391872
1549.028,0.00565143768
1549.029,0.00565005885
1549.03,0.00565226423
1549.031,0.00565088633
1549.032,0.00565612502
1549.033,0.00565722771
1549.034,0.00564840436
1549.035,0.00565364305
1549.036,0.00565364305
1549.037,0.0056547462
1549.038,0.00565198902
1549.039,0.00564840436
1549.04,0.0056547462
1549.041,0.00565529754
1549.042,0.00565722771
1549.043,0.00564757735
1549.044,0.00564978318
1549.045,0.00565447053
1549.046,0.00565116201
1549.047,0.00565502187
1549.048,0.0056525399
1549.049,0.00565391872
1549.05,0.00564509584
1549.051,0.00564840436
1549.052,0.00565005885
1549.053,0.0056506102
1549.054,0.00565584889
1549.055,0.00565226423
1549.056,0.00564950751
1549.057,0.00565557322
1549.058,0.00566191506
1549.059,0.00565005885
1549.06,0.00564978318
1549.061,0.0056583304
1549.062,0.00565226423
1549.063,0.00565860607
1549.064,0.00565695204
1549.065,0.0056564007
1549.066,0.00565419439
1549.067,0.00565970922
1549.068,0.00565557322
1549.069,0.00565502187
1549.07,0.00565447053
1549.071,0.00565970922
1549.072,0.00565281603
1549.073,0.00565502187
1549.074,0.00565888174
1549.075,0.00565612502
1549.076,0.0056547462
1549.077,0.0056583304
1549.078,0.00565915741
1549.079,0.00566108758
1549.08,0.00565970922
1549.081,0.00566329341
1549.082,0.0056583304
1549.083,0.00565419439
1549.084,0.00565584889
1549.085,0.00568314502
1549.086,0.0056643961
1549.087,0.00567900948
1549.088,0.00565584889
1549.089,0.0056666024
1549.09,0.00567073794
1549.091,0.00565612502
1549.092,0.00566356909
1549.093,0.00565777859
1549.094,0.00567680364
1549.095,0.00566246593
1549.096,0.00565915741
1549.097,0.00567404646
1549.098,0.00566274161
1549.099,0.00567735545
1549.1,0.00566908345
1549.101,0.00567266811
1549.102,0.00567542529
1549.103,0.00566605059
1549.104,0.00567928515
1549.105,0.00567046227
1549.106,0.00567266811
1549.107,0.0056685321
1549.108,0.00567763112
1549.109,0.00568011217
1549.11,0.00567156496
1549.111,0.00567652797
1549.112,0.00568286981
1549.113,0.00567487348
1549.114,0.00567873381
1549.115,0.00567073794
1549.116,0.00568204233
1549.117,0.00568176666
1549.118,0.00568369636
1549.119,0.00567956083
1549.12,0.00568176666
1549.121,0.00569058955
1549.122,0.00568452384
1549.123,0.00568259414
1549.124,0.00568535086
1549.125,0.00567790633
1549.126,0.00568672968
1549.127,0.00568149099
1549.128,0.00568369636
1549.129,0.00568121532
1549.13,0.00567597663
1549.131,0.00568562699
1549.132,0.005678182
1549.133,0.00567735545
1549.134,0.00568259414
1549.135,0.00567487348
1549.136,0.00567459781
1549.137,0.00567487348
1549.138,0.00569114136
1549.139,0.00567487348
1549.14,0.00567211676
1549.141,0.00568562699
1549.142,0.00567652797
1549.143,0.00567046227
1549.144,0.00568121532
1549.145,0.00568286981
1549.146,0.00566742942
1549.147,0.00567652797
1549.148,0.00567680364
1549.149,0.00567211676
1549.15,0.00568149099
1549.151,0.00567763112
1549.152,0.00566494791
1549.153,0.00567432214
1549.154,0.00568452384
1549.155,0.00567211676
1549.156,0.00567073794
1549.157,0.00567459781
1549.158,0.00567266811
1549.159,0.00566770462
1549.16,0.00566770462
1549.161,0.00567542529
1549.162,0.00565777859
1549.163,0.0056666024
1549.164,0.00567542529
1549.165,0.00566026056
1549.166,0.00566412043
1549.167,0.00566991046
1549.168,0.00565419439
1549.169,0.00566191506
1549.17,0.00567046227
1549.171,0.00566026056
1549.172,0.00565529754
1549.173,0.00565502187
1549.174,0.00565529754
1549.175,0.00565281603
1549.176,0.00565447053
1549.177,0.00565171335
1549.178,0.00565088633
1549.179,0.00564675033
1549.18,0.0056564007
1549.181,0.00565584889
1549.182,0.00564730121
1549.183,0.0056583304
1549.184,0.00564978318
1549.185,0.0056489557
1549.186,0.00564923184
1549.187,0.0056525399
1549.188,0.00564785302
1549.189,0.00564978318
1549.19,0.00564399315
1549.191,0.00564592332
1549.192,0.005647026
1549.193,0.00564675033
1549.194,0.005647026
1549.195,0.00564206252
1549.196,0.00564289
1549.197,0.00563847832
1549.198,0.00564040896
1549.199,0.00564233866
1549.2,0.0056409603
1549.201,0.00563903013
1549.202,0.00564206252
1549.203,0.00563903013
1549.204,0.00563186128
1549.205,0.00563489413
1549.206,0.00563737564
1549.207,0.00564151164
1549.208,0.00563544594
1549.209,0.00563544594
1549.21,0.00563186128
1549.211,0.00562800094
1549.212,0.00563351577
1549.213,0.00563296396
1549.214,0.00562800094
1549.215,0.00562965544
1549.216,0.00562882842
1549.217,0.00563020725
1549.218,0.00563847832
1549.219,0.00563268829
1549.22,0.00562689826
1549.221,0.00563351577
1549.222,0.00563268829
1549.223,0.00562800094
1549.224,0.00562662305
1549.225,0.00562993111
1549.226,0.00562358974
1549.227,0.00562358974
1549.228,0.00562717393
1549.229,0.00562441675
1549.23,0.0056274496
1549.231,0.00563213695
1549.232,0.00562524423
1549.233,0.00562276226
1549.234,0.00562855275
1549.235,0.00562221091
1549.236,0.00562772527
1549.237,0.00562827708
1549.238,0.00562386541
1549.239,0.00561917806
1549.24,0.00562083255
1549.241,0.00561779924
1549.242,0.00561807537
1549.243,0.00561752357
1549.244,0.00562607124
1549.245,0.00562414108
1549.246,0.00561504252
1549.247,0.00561642088
1549.248,0.00562138436
1549.249,0.00560952816
1549.25,0.00561642088
1549.251,0.00561228488
1549.252,0.00561145786
1549.253,0.00561504252
1549.254,0.00561338803
1549.255,0.0056056683
1549.256,0.00561835105
1549.257,0.00561835105
1549.258,0.00561035518
1549.259,0.00561063085
1549.26,0.00561449118
1549.261,0.00561145786
1549.262,0.00560732186
1549.263,0.00561228488
1549.264,0.0056120092
1549.265,0.00560621917
1549.266,0.00561393937
1549.267,0.00560897635
1549.268,0.005607598
1549.269,0.00561338803
1549.27,0.00561090698
1549.271,0.00559960213
1549.272,0.0056018075
1549.273,0.00560980383
1549.274,0.00560732186
1549.275,0.00560897635
1549.276,0.00560373766
1549.277,0.00561311236
1549.278,0.00560704619
1549.279,0.0056100795
1549.28,0.0056136637
1549.281,0.00561228488
1549.282,0.00560732186
1549.283,0.00560346199
1549.284,0.00560428947
1549.285,0.00560428947
1549.286,0.00560456514
1549.287,0.00560842501
1549.288,0.00561614567
1549.289,0.00560897635
1549.29,0.00560263498
1549.291,0.00560814934
1549.292,0.00560952816
1549.293,0.00560649484
1549.294,0.00560318632
1549.295,0.00560456514
1549.296,0.00560539216
1549.297,0.0056018075
1549.298,0.0056040138
1549.299,0.00560484082
1549.3,0.00560594397
1549.301,0.00560704619
1549.302,0.00560346199
1549.303,0.00560153183
1549.304,0.00560098095
1549.305,0.00560318632
1549.306,0.00560456514
1549.307,0.00561228488
1549.308,0.00560952816
1549.309,0.00559656881
1549.31,0.00558526488
1549.311,0.00559463911
1549.312,0.00559684448
1549.313,0.00559684448
1549.314,0.00560015347
1549.315,0.00560539216
1549.316,0.00559160579
1549.317,0.00559849897
1549.318,0.0056018075
1549.319,0.00559739629
1549.32,0.0055982233
1549.321,0.00560346199
1549.322,0.00560456514
1549.323,0.00560539216
1549.324,0.00560208317
1549.325,0.00559491478
1549.326,0.00559133012
1549.327,0.0055982233
1549.328,0.00559960213
1549.329,0.00559105445
1549.33,0.00559160579
1549.331,0.00559960213
1549.332,0.00559629314
1549.333,0.0055863671
1549.334,0.00559684448
1549.335,0.00558912475
1549.336,0.00559050357
1549.337,0.00559298461
1549.338,0.0055998778
1549.339,0.00559960213
1549.34,0.00558774592
1549.341,0.00559739629
1549.342,0.00558609143
1549.343,0.0055880216
1549.344,0.00558223156
1549.345,0.0055880216
1549.346,0.00558664324
1549.347,0.0055844374
1549.348,0.00558912475
1549.349,0.0055783717
1549.35,0.00558554055
1549.351,0.00558030186
1549.352,0.0055783717
1549.353,0.00558912475
1549.354,0.00558085274
1549.355,0.00557947438
1549.356,0.00557864737
1549.357,0.00558002619
1549.358,0.00558002619
1549.359,0.00558223156
1549.36,0.00558719458
1549.361,0.00556954881
1549.362,0.00558361039
1549.363,0.00558774592
1549.364,0.00558526488
1549.365,0.00558471307
1549.366,0.00558912475
1549.367,0.0055863671
1549.368,0.00558030186
1549.369,0.00558940042
1549.37,0.0055783717
1549.371,0.00558416173
1549.372,0.00558140455
1549.373,0.00557368435
1549.374,0.00558140455
1549.375,0.00558967609
1549.376,0.00559133012
1549.377,0.00558554055
1549.378,0.00558995223
1549.379,0.00558884908
1549.38,0.00558140455
1549.381,0.00559408776
1549.382,0.00559629314
1549.383,0.0055921576
1549.384,0.00558995223
1549.385,0.00558361039
1549.386,0.00558940042
1549.387,0.00559794763
1549.388,0.00559767196
1549.389,0.0055880216
1549.39,0.00559629314
1549.391,0.00559243327
1549.392,0.00559656881
1549.393,0.00560870068
1549.394,0.00560098095
1549.395,0.00560814934
1549.396,0.00559601746
1549.397,0.0055998778
1549.398,0.00560346199
1549.399,0.00560263498
1549.4,0.00561118266
1549.401,0.00560346199
1549.402,0.00560042961
1549.403,0.00560704619
1549.404,0.00560704619
1549.405,0.00560346199
1549.406,0.00559877511
1549.407,0.0056040138
1549.408,0.00560263498
1549.409,0.00560015347
1549.41,0.00560621917
1549.411,0.005607598
1549.412,0.00560732186
1549.413,0.00560208317
1549.414,0.00560952816
1549.415,0.00560318632
1549.416,0.00560042961
1549.417,0.00561256055
1549.418,0.00560897635
1549.419,0.00559960213
1549.42,0.00560814934
1549.421,0.00560980383
1549.422,0.00560235931
1549.423,0.00560539216
1549.424,0.00561531819
1549.425,0.00560925249
1549.426,0.00561504252
1549.427,0.00561173353
1549.428,0.00561063085
1549.429,0.00561228488
1549.43,0.00561449118
1549.431,0.00561669655
1549.432,0.00561338803
1549.433,0.00561890239
1549.434,0.00561449118
1549.435,0.00560346199
1549.436,0.00561697222
1549.437,0.00561945373
1549.438,0.00561642088
1549.439,0.00561724789
1549.44,0.00561531819
1549.441,0.00561421504
1549.442,0.00561835105
1549.443,0.00561890239
1549.444,0.00561862672
1549.445,0.00561531819
1549.446,0.00561421504
1549.447,0.00561421504
1549.448,0.00561779924
1549.449,0.00562414108
1549.45,0.00561063085
1549.451,0.00562110823
1549.452,0.00562055688
1549.453,0.00561972987
1549.454,0.00562083255
1549.455,0.00562083255
1549.456,0.00561697222
1549.457,0.00561697222
1549.458,0.00561972987
1549.459,0.00561228488
1549.46,0.00561835105
1549.461,0.00561835105
1549.462,0.00560952816
1549.463,0.00561311236
1549.464,0.0056120092
1549.465,0.00561090698
1549.466,0.00561421504
1549.467,0.00562000554
1549.468,0.00561586954
1549.469,0.00561724789
1549.47,0.00561724789
1549.471,0.00560677052
1549.472,0.00561256055
1549.473,0.00560980383
1549.474,0.00560677052
1549.475,0.00561421504
1549.476,0.00560897635
1549.477,0.00560952816
1549.478,0.00561421504
1549.479,0.00561559387
1549.48,0.00561256055
1549.481,0.00561145786
1549.482,0.00561256055
1549.483,0.00560870068
1549.484,0.00560649484
1549.485,0.00560814934
1549.486,0.00560621917
1549.487,0.00560346199
1549.488,0.00559960213
1549.489,0.00560373766
1549.49,0.0056040138
1549.491,0.0056018075
1549.492,0.00560015347
1549.493,0.00560594397
1549.494,0.00560484082
1549.495,0.00559932645
1549.496,0.00560263498
1549.497,0.00560291065
1549.498,0.00559133012
1549.499,0.0056018075
1549.5,0.00560263498
1549.501,0.0055998778
1549.502,0.00559877511
1549.503,0.00560235931
1549.504,0.00559960213
1549.505,0.00559160579
1549.506,0.00559381209
1549.507,0.00559905078
1549.508,0.00559436344
1549.509,0.00559243327
1549.51,0.0055921576
1549.511,0.00559574226
1549.512,0.00559601746
1549.513,0.00559601746
1549.514,0.00559546659
1549.515,0.00559188193
1549.516,0.00559243327
1549.517,0.00559270894
1549.518,0.00559739629
1549.519,0.00559243327
1549.52,0.00559601746
1549.521,0.00558416173
1549.522,0.00557892304
1549.523,0.00558912475
1549.524,0.00559326028
1549.525,0.0055902279
1549.526,0.00558554055
1549.527,0.00559656881
1549.528,0.00557037583
1549.529,0.00559188193
1549.53,0.00559960213
1549.531,0.00558416173
1549.532,0.00560235931
1549.533,0.00558747025
1549.534,0.00558884908
1549.535,0.00558085274
1549.536,0.00559298461
1549.537,0.00559105445
1549.538,0.00558967609
1549.539,0.00560346199
1549.54,0.00558774592
1549.541,0.00559050357
1549.542,0.00559243327
1549.543,0.0055844374
1549.544,0.00558609143
1549.545,0.00558829773
1549.546,0.0055885734
1549.547,0.00559574226
1549.548,0.00559932645
1549.549,0.00559270894
1549.55,0.0055885734
1549.551,0.00559960213
1549.552,0.00558884908
1549.553,0.00559243327
1549.554,0.00558719458
1549.555,0.00558829773
1549.556,0.00559684448
1549.557,0.00559298461
1549.558,0.00559656881
1549.559,0.00559408776
1549.56,0.00560098095
1549.561,0.00560015347
1549.562,0.00559849897
1549.563,0.00560208317
1549.564,0.00559436344
1549.565,0.0056040138
1549.566,0.00560070528
1549.567,0.00560235931
1549.568,0.00560125615
1549.569,0.00559574226
1549.57,0.00560842501
1549.571,0.00560015347
1549.572,0.00560511649
1549.573,0.00561145786
1549.574,0.00559629314
1549.575,0.00561090698
1549.576,0.00560318632
1549.577,0.00560539216
1549.578,0.0056018075
1549.579,0.00560870068
1549.58,0.00560511649
1549.581,0.0056040138
1549.582,0.00560456514
1549.583,0.00560814934
1549.584,0.00560511649
1549.585,0.00561228488
1549.586,0.00560346199
1549.587,0.00561449118
1549.588,0.00560704619
1549.589,0.00561063085
1549.59,0.0056056683
1549.591,0.00560456514
1549.592,0.0056100795
1549.593,0.00560842501
1549.594,0.00561311236
1549.595,0.00560870068
1549.596,0.00560208317
1549.597,0.00561421504
1549.598,0.00560621917
1549.599,0.0056120092
1549.6,0.00561724789
1549.601,0.00561531819
1549.602,0.0056136637
1549.603,0.00561614567
1549.604,0.0056120092
1549.605,0.00560980383
1549.606,0.00561228488
1549.607,0.0056120092
1549.608,0.00561063085
1549.609,0.00561559387
1549.61,0.00561393937
1549.611,0.00561145786
1549.612,0.00560594397
1549.613,0.0056136637
1549.614,0.00561393937
1549.615,0.00560677052
1549.616,0.00561145786
1549.617,0.00561338803
1549.618,0.00561256055
1549.619,0.00561090698
1549.62,0.00561559387
1549.621,0.00560125615
1549.622,0.00559877511
1549.623,0.00560732186
1549.624,0.00560042961
1549.625,0.00560373766
1549.626,0.00561393937
1549.627,0.00560621917
1549.628,0.00561063085
1549.629,0.00560621917
1549.63,0.00559849897
1549.631,0.00560428947
1549.632,0.00560291065
1549.633,0.00561035518
1549.634,0.00560428947
1549.635,0.005607598
1549.636,0.00560346199
1549.637,0.0056018075
1549.638,0.00560787367
1549.639,0.00559298461
1549.64,0.00560263498
1549.641,0.00559794763
1549.642,0.00559270894
1549.643,0.00560373766
1549.644,0.00560125615
1549.645,0.0055921576
1549.646,0.00558995223
1549.647,0.0055998778
1549.648,0.00560125615
1549.649,0.00558995223
1549.65,0.00559712062
1549.651,0.00559160579
1549.652,0.00558416173
1549.653,0.00560346199
1549.654,0.00558940042
1549.655,0.00559546659
1549.656,0.00559160579
1549.657,0.00558829773
1549.658,0.00558664324
1549.659,0.00558195589
1549.66,0.00558664324
1549.661,0.00558609143
1549.662,0.00559408776
1549.663,0.00559105445
1549.664,0.00558664324
1549.665,0.00559629314
1549.666,0.0055880216
1549.667,0.00558361039
1549.668,0.00558250723
1549.669,0.00558995223
1549.67,0.00557975052
1549.671,0.00558609143
1549.672,0.00559463911
1549.673,0.00558168022
1549.674,0.00558416173
1549.675,0.00558305904
1549.676,0.00557313301
1549.677,0.00558223156
1549.678,0.00558719458
1549.679,0.0055783717
1549.68,0.00557809602
1549.681,0.00558278291
1549.682,0.00558250723
1549.683,0.00558002619
1549.684,0.00558002619
1549.685,0.00557919871
1549.686,0.00558416173
1549.687,0.00558278291
1549.688,0.00557782035
1549.689,0.00557726854
1549.69,0.00558498921
1549.691,0.00557754422
1549.692,0.0055747875
1549.693,0.00558305904
1549.694,0.00557754422
1549.695,0.0055725812
1549.696,0.00557010015
1549.697,0.00557396002
1549.698,0.00556844566
1549.699,0.00556541234
1549.7,0.00558112841
1549.701,0.00556541234
1549.702,0.00556844566
1549.703,0.00556927314
1549.704,0.00556541234
1549.705,0.00557588972
1549.706,0.0055629313
1549.707,0.00556844566
1549.708,0.0055725812
1549.709,0.00556265563
1549.71,0.00556375831
1549.711,0.00556458579
1549.712,0.00556844566
1549.713,0.005568997
1549.714,0.00556789432
1549.715,0.00556486147
1549.716,0.00556486147
1549.717,0.0055747875
1549.718,0.00556237996
1549.719,0.00556348264
1549.72,0.0055629313
1549.721,0.00556513714
1549.722,0.00555824395
1549.723,0.00555851962
1549.724,0.00556458579
1549.725,0.00555686513
1549.726,0.00556182815
1549.727,0.00555438409
1549.728,0.00554528506
1549.729,0.00554583641
1549.73,0.00556486147
1549.731,0.00554942107
1549.732,0.00555328093
1549.733,0.00555824395
1549.734,0.00554390671
1549.735,0.00555824395
1549.736,0.00555631379
1549.737,0.00555190258
1549.738,0.00555907143
1549.739,0.00555603812
1549.74,0.00555079943
1549.741,0.00555548677
1549.742,0.00555355707
1549.743,0.00555603812
1549.744,0.0055510751
1549.745,0.00555631379
1549.746,0.00555245392
1549.747,0.00554721523
1549.748,0.00555989845
1549.749,0.0055491454
1549.75,0.0055394955
1549.751,0.00555300526
1549.752,0.00554114906
1549.753,0.00553921936
1549.754,0.00552460598
1549.755,0.00551164709
1549.756,0.00551330158
1549.757,0.00553866802
1549.758,0.00552653614
1549.759,0.00554859405
1549.76,0.00554307969
1549.761,0.0055259848
1549.762,0.00552791497
1549.763,0.0055414252
1549.764,0.00555438409
1549.765,0.00553728919
1549.766,0.00554087339
1549.767,0.00555024808
1549.768,0.00553012034
1549.769,0.0055397707
1549.77,0.00555355707
1549.771,0.00553839235
1549.772,0.00554307969
1549.773,0.00554473419
1549.774,0.00553425634
1549.775,0.00553342933
1549.776,0.00554583641
1549.777,0.00553673785
1549.778,0.00553398067
1549.779,0.00554556074
1549.78,0.00553535903
1549.781,0.00553453248
1549.782,0.00554032205
1549.783,0.00552984467
1549.784,0.00553094782
1549.785,0.00553094782
1549.786,0.00552791497
1549.787,0.00552653614
1549.788,0.00553342933
1549.789,0.00552846631
1549.79,0.00552791497
1549.791,0.00551991863
1549.792,0.00553205051
1549.793,0.00553205051
1549.794,0.00552129745
1549.795,0.00552460598
1549.796,0.00552129745
1549.797,0.00552736316
1549.798,0.00553149916
1549.799,0.00551854027
1549.8,0.00552074611
1549.801,0.00552488165
1549.802,0.00552322762
1549.803,0.00552074611
1549.804,0.00551688578
1549.805,0.00551909208
1549.806,0.00551633444
1549.807,0.00551743759
1549.808,0.00551688578
1549.809,0.00551578309
1549.81,0.00551716192
1549.811,0.00551467994
1549.812,0.00552074611
1549.813,0.00551109575
1549.814,0.00551357772
1549.815,0.00551716192
1549.816,0.00551550742
1549.817,0.00551605877
1549.818,0.00551385339
1549.819,0.00551633444
1549.82,0.00551137142
1549.821,0.0055141286
1549.822,0.00551164709
1549.823,0.00550944125
1549.824,0.00551385339
1549.825,0.00551357772
1549.826,0.00551523129
1549.827,0.00551385339
1549.828,0.0055105444
1549.829,0.00550668454
1549.83,0.00551192323
1549.831,0.00551109575
1549.832,0.0055121989
1549.833,0.00551137142
1549.834,0.00551467994
1549.835,0.00551192323
1549.836,0.00551661011
1549.837,0.0055121989
1549.838,0.00550944125
1549.839,0.00551743759
1549.84,0.0055121989
1549.841,0.00551550742
1549.842,0.00551247457
1549.843,0.00551109575
1549.844,0.00551523129
1549.845,0.00551661011
1549.846,0.00552212447
1549.847,0.00551495561
1549.848,0.00551854027
1549.849,0.00551854027
1549.85,0.00551302591
1549.851,0.00552377896
1549.852,0.00551137142
1549.853,0.00551771326
1549.854,0.00552129745
1549.855,0.00551881641
1549.856,0.00551550742
1549.857,0.00551743759
1549.858,0.00552267628
1549.859,0.00551688578
1549.86,0.00552129745
1549.861,0.00551964296
1549.862,0.0055086147
1549.863,0.00552488165
1549.864,0.00552515732
1549.865,0.0055182646
1549.866,0.00552295195
1549.867,0.00552874198
1549.868,0.00552047044
1549.869,0.00552322762
1549.87,0.00553122349
1549.871,0.00553067168
1549.872,0.00553177483
1549.873,0.005533705
1549.874,0.00553067168
1549.875,0.00553508336
1549.876,0.00553728919
1549.877,0.0055356347
1549.878,0.00553728919
1549.879,0.00553921936
1549.88,0.00554170087
1549.881,0.00554418238
1549.882,0.00553866802
1549.883,0.00553756487
1549.884,0.00554942107
1549.885,0.00554776657
1549.886,0.00554032205
1549.887,0.0055491454
1549.888,0.00554693956
1549.889,0.00554528506
1549.89,0.00554721523
1549.891,0.0055474909
1549.892,0.0055491454
1549.893,0.00555245392
1549.894,0.00555272959
1549.895,0.00555052375
1549.896,0.00555300526
1549.897,0.00554666389
1549.898,0.00555190258
1549.899,0.00555024808
1549.9,0.00554859405
1549.901,0.00554886973
1549.902,0.00555493543
1549.903,0.00555438409
1549.904,0.00554886973
1549.905,0.00555493543
1549.906,0.00555245392
1549.907,0.0055510751
1549.908,0.00555493543
1549.909,0.00555796828
1549.91,0.00555631379
1549.911,0.00555465976
1549.912,0.00555796828
1549.913,0.00555328093
1549.914,0.00555410841
1549.915,0.00555272959
1549.916,0.00555769261
1549.917,0.00555658946
1549.918,0.00555300526
1549.919,0.00555603812
1549.92,0.00555272959
1549.921,0.00555079943
1549.922,0.00555190258
1549.923,0.00554997195
1549.924,0.00554886973
1549.925,0.00555272959
1549.926,0.00555079943
1549.927,0.00554831838
1549.928,0.00554859405
1549.929,0.00554721523
1549.93,0.00554886973
1549.931,0.00555383274
1549.932,0.00554335536
1549.933,0.00553701352
1549.934,0.00554776657
1549.935,0.00554390671
1549.936,0.00553811667
1549.937,0.0055394955
1549.938,0.00554831838
1549.939,0.00553894369
1549.94,0.0055414252
1549.941,0.00554997195
1549.942,0.00554473419
1549.943,0.00554114906
1549.944,0.00554473419
1549.945,0.00554611208
1549.946,0.00553921936
1549.947,0.00554831838
1549.948,0.00553866802
1549.949,0.00553315366
1549.95,0.00554583641
1549.951,0.00553508336
1549.952,0.00554114906
1549.953,0.00554170087
1549.954,0.00554583641
1549.955,0.00554032205
1549.956,0.005537841
1549.957,0.0055394955
1549.958,0.00554721523
1549.959,0.00553287799
1549.96,0.00554170087
1549.961,0.0055394955
1549.962,0.00553398067
1549.963,0.0055394955
1549.964,0.00553811667
1549.965,0.00553894369
1549.966,0.0055394955
1549.967,0.00553039601
1549.968,0.00553425634
1549.969,0.00553894369
1549.97,0.00553122349
1549.971,0.00552708749
1549.972,0.00553205051
1549.973,0.00553425634
1549.974,0.00552846631
1549.975,0.00553260231
1549.976,0.005529569
1549.977,0.00552708749
1549.978,0.00552653614
1549.979,0.00553260231
1549.98,0.00552819064
1549.981,0.005529569
1549.982,0.00553067168
1549.983,0.00552460598
1549.984,0.0055259848
1549.985,0.00552460598
1549.986,0.00552377896
1549.987,0.00552129745
1549.988,0.00552708749
1549.989,0.00552377896
1549.99,0.0055218488
1549.991,0.00552570913
1549.992,0.00552819064
1549.993,0.00552681182
1549.994,0.00552350329
1549.995,0.00552129745
1549.996,0.00552736316
1549.997,0.00553039601
1549.998,0.00552074611
1549.999,0.00552736316
1550.0,0.00552653614
1550.001,0.00552626047
1550.002,0.00552653614
1550.003,0.00552212447
1550.004,0.00551881641
1550.005,0.00552653614
1550.006,0.0055201943
1550.007,0.0055201943
1550.008,0.00552460598
1550.009,0.00552267628
1550.01,0.00552074611
1550.011,0.00552708749
1550.012,0.0055218488
1550.013,0.00552295195
1550.014,0.00552570913
1550.015,0.00552102178
1550.016,0.00552543299
1550.017,0.00552488165
1550.018,0.00551991863
1550.019,0.00552377896
1550.02,0.00552653614
1550.021,0.00551881641
1550.022,0.00553122349
1550.023,0.0055259848
1550.024,0.0055218488
1550.025,0.00552240061
1550.026,0.00552377896
1550.027,0.00552350329
1550.028,0.00552570913
1550.029,0.00552708749
1550.03,0.00552515732
1550.031,0.00552240061
1550.032,0.00552433077
1550.033,0.00552460598
1550.034,0.00553232618
1550.035,0.0055276393
1550.036,0.00552791497
1550.037,0.00553067168
1550.038,0.00553094782
1550.039,0.00553287799
1550.04,0.00552929379
1550.041,0.00553839235
1550.042,0.00552929379
1550.043,0.00552736316
1550.044,0.00553315366
1550.045,0.00553149916
1550.046,0.00553067168
1550.047,0.0055276393
1550.048,0.00553618651
1550.049,0.00552653614
1550.05,0.00552681182
1550.051,0.00553673785
1550.052,0.00552929379
1550.053,0.00553591037
1550.054,0.00553480769
1550.055,0.005533705
1550.056,0.00553480769
1550.057,0.00553287799
1550.058,0.00553673785
1550.059,0.005533705
1550.06,0.00553921936
1550.061,0.00553728919
1550.062,0.00553205051
1550.063,0.005537841
1550.064,0.00553756487
1550.065,0.00553866802
1550.066,0.00553315366
1550.067,0.00554087339
1550.068,0.00554114906
1550.069,0.00553811667
1550.07,0.00553811667
1550.071,0.00553894369
1550.072,0.00553756487
1550.073,0.00553591037
1550.074,0.00553811667
1550.075,0.00554087339
1550.076,0.00553728919
1550.077,0.00554087339
1550.078,0.0055394955
1550.079,0.00553921936
1550.08,0.00554032205
1550.081,0.00554252788
1550.082,0.00554114906
1550.083,0.00554280356
1550.084,0.0055414252
1550.085,0.00553866802
1550.086,0.00554390671
1550.087,0.00553811667
1550.088,0.00554004638
1550.089,0.00554363104
1550.09,0.00554114906
1550.091,0.00553894369
1550.092,0.00554170087
1550.093,0.00553921936
1550.094,0.00554032205
1550.095,0.00554363104
1550.096,0.00554225221
1550.097,0.00554252788
1550.098,0.00553894369
1550.099,0.00553894369
1550.1,0.00553811667
1550.101,0.00554004638
1550.102,0.00554087339
1550.103,0.00553728919
1550.104,0.00554059772
1550.105,0.00554252788
1550.106,0.00553894369
1550.107,0.00554307969
1550.108,0.00553646218
1550.109,0.0055397707
1550.11,0.00553673785
1550.111,0.00554583641
1550.112,0.0055397707
1550.113,0.00553728919
1550.114,0.00554114906
1550.115,0.00553894369
1550.116,0.00553453248
1550.117,0.00553894369
1550.118,0.005533705
1550.119,0.00553894369
1550.12,0.00553618651
1550.121,0.0055394955
1550.122,0.00553839235
1550.123,0.00554114906
1550.124,0.00554087339
1550.125,0.00553535903
1550.126,0.00553425634
1550.127,0.00554059772
1550.128,0.00553646218
1550.129,0.00553591037
1550.13,0.00554004638
1550.131,0.00553508336
1550.132,0.00553177483
1550.133,0.0055356347
1550.134,0.00553122349
1550.135,0.00552819064
1550.136,0.00553012034
1550.137,0.00553177483
1550.138,0.00552543299
1550.139,0.00553232618
1550.14,0.005533705
1550.141,0.00552653614
1550.142,0.00553342933
1550.143,0.00552874198
1550.144,0.00552901765
1550.145,0.00552626047
1550.146,0.00553673785
1550.147,0.00553012034
1550.148,0.005533705
1550.149,0.00553398067
1550.15,0.00553067168
1550.151,0.00553232618
1550.152,0.00553039601
1550.153,0.00553398067
1550.154,0.00552626047
1550.155,0.00553067168
1550.156,0.00552846631
1550.157,0.00553122349
1550.158,0.00552708749
1550.159,0.00552736316
1550.16,0.00553094782
1550.161,0.00552681182
1550.162,0.00552901765
1550.163,0.00553260231
1550.164,0.00552488165
1550.165,0.00552570913
1550.166,0.005533705
1550.167,0.00552791497
1550.168,0.00553122349
1550.169,0.00553287799
1550.17,0.00552681182
1550.171,0.005529569
1550.172,0.00553149916
1550.173,0.00553067168
1550.174,0.00553094782
1550.175,0.00553149916
1550.176,0.00552708749
1550.177,0.00552681182
1550.178,0.00553205051
1550.179,0.00553149916
1550.18,0.00552901765
1550.181,0.00553232618
1550.182,0.00553094782
1550.183,0.00553205051
1550.184,0.005533705
1550.185,0.00553342933
1550.186,0.00553177483
1550.187,0.00553149916
1550.188,0.00552708749
1550.189,0.0055259848
1550.19,0.00552846631
1550.191,0.00552791497
1550.192,0.00553149916
1550.193,0.00553287799
1550.194,0.00552929379
1550.195,0.00552901765
1550.196,0.00552708749
1550.197,0.00552626047
1550.198,0.00552791497
1550.199,0.00553232618
1550.2,0.00552543299
1550.201,0.00552653614
1550.202,0.00553205051
1550.203,0.00552984467
1550.204,0.0055259848
1550.205,0.00553232618
1550.206,0.00553342933
1550.207,0.00552736316
1550.208,0.00553453248
1550.209,0.00552984467
1550.21,0.00552626047
1550.211,0.00553012034
1550.212,0.00552901765
1550.213,0.00552350329
1550.214,0.00552460598
1550.215,0.00552047044
1550.216,0.00552929379
1550.217,0.00552708749
1550.218,0.0055259848
1550.219,0.00552350329
1550.22,0.00552322762
1550.221,0.00552846631
1550.222,0.00552929379
1550.223,0.00552267628
1550.224,0.00552295195
1550.225,0.005529569
1550.226,0.0055240551
1550.227,0.00552433077
1550.228,0.00552102178
1550.229,0.00552267628
1550.23,0.00551881641
1550.231,0.00551936729
1550.232,0.00551854027
1550.233,0.0055182646
1550.234,0.00551936729
1550.235,0.00551771326
1550.236,0.00551495561
1550.237,0.0055201943
1550.238,0.00551688578
1550.239,0.00551688578
1550.24,0.00551275024
1550.241,0.00551302591
1550.242,0.0055121989
1550.243,0.00551661011
1550.244,0.0055105444
1550.245,0.00551109575
1550.246,0.00551743759
1550.247,0.00550778722
1550.248,0.0055080629
1550.249,0.0055086147
1550.25,0.0055141286
1550.251,0.00550558139
1550.252,0.00551164709
1550.253,0.00551495561
1550.254,0.00550889038
1550.255,0.00551082008
1550.256,0.00551578309
1550.257,0.00550778722
1550.258,0.00550172152
1550.259,0.00551330158
1550.26,0.00550889038
1550.261,0.0055080629
1550.262,0.00550833903
1550.263,0.00550420256
1550.264,0.00550337601
1550.265,0.00550392689
1550.266,0.00550420256
1550.267,0.00550089404
1550.268,0.00549868867
1550.269,0.00550227286
1550.27,0.00549234683
1550.271,0.00549400086
1550.272,0.00549427653
1550.273,0.00548876217
1550.274,0.00549372518
1550.275,0.00549620716
1550.276,0.00549400086
1550.277,0.00549565535
1550.278,0.00550144585
1550.279,0.00549703417
1550.28,0.00549620716
1550.281,0.00549565535
1550.282,0.00549151981
1550.283,0.00548958965
1550.284,0.00549510401
1550.285,0.00549593102
1550.286,0.00549427653
1550.287,0.00548903784
1550.288,0.00548986532
1550.289,0.00549482834
1550.29,0.00549207116
1550.291,0.00549400086
1550.292,0.00548407529
1550.293,0.00549234683
1550.294,0.00549455266
1550.295,0.00548793562
1550.296,0.00549427653
1550.297,0.00549979135
1550.298,0.00548903784
1550.299,0.00549400086
1550.3,0.00549510401
1550.301,0.00548958965
1550.302,0.00550006703
1550.303,0.005498413
1550.304,0.0054967585
1550.305,0.00549593102
1550.306,0.00549400086
1550.307,0.00549207116
1550.308,0.00549455266
1550.309,0.00549372518
1550.31,0.00549014099
1550.311,0.00548765995
1550.312,0.00549427653
1550.313,0.00549427653
1550.314,0.0054829726
1550.315,0.00548186945
1550.316,0.00549289864
1550.317,0.00549482834
1550.318,0.00548986532
1550.319,0.00549758552
1550.32,0.00549813733
1550.321,0.00549510401
1550.322,0.0054967585
1550.323,0.00549896387
1550.324,0.00550475391
1550.325,0.00549813733
1550.326,0.00549703417
1550.327,0.005498413
1550.328,0.00549758552
1550.329,0.00550337601
1550.33,0.005498413
1550.331,0.00550116971
1550.332,0.00549758552
1550.333,0.00550282421
1550.334,0.00550089404
1550.335,0.00549372518
1550.336,0.00549703417
1550.337,0.00550144585
1550.338,0.00550061837
1550.339,0.00550503004
1550.34,0.00550282421
1550.341,0.00550116971
1550.342,0.00550227286
1550.343,0.00550475391
1550.344,0.00550613273
1550.345,0.00550089404
1550.346,0.00550365169
1550.347,0.00550392689
1550.348,0.00550778722
1550.349,0.00550668454
1550.35,0.00550778722
1550.351,0.00550971692
1550.352,0.00551440427
1550.353,0.0055064084
1550.354,0.00551082008
1550.355,0.00551164709
1550.356,0.00551302591
1550.357,0.00550889038
1550.358,0.00551275024
1550.359,0.00551026873
1550.36,0.0055105444
1550.361,0.00551247457
1550.362,0.00551605877
1550.363,0.00550944125
1550.364,0.0055121989
1550.365,0.00550971692
1550.366,0.00551109575
1550.367,0.00551881641
1550.368,0.00551164709
1550.369,0.00551550742
1550.37,0.00551798893
1550.371,0.00551026873
1550.372,0.00551909208
1550.373,0.00551192323
1550.374,0.0055105444
1550.375,0.00551495561
1550.376,0.00551164709
1550.377,0.00551798893
1550.378,0.00551688578
1550.379,0.00550944125
1550.38,0.00550944125
1550.381,0.0055121989
1550.382,0.00551881641
1550.383,0.00551247457
1550.384,0.00551302591
1550.385,0.00551440427
1550.386,0.0055121989
1550.387,0.00551440427
1550.388,0.00551716192
1550.389,0.00551991863
1550.39,0.00552157313
1550.391,0.00552240061
1550.392,0.00551688578
1550.393,0.00552047044
1550.394,0.00551523129
1550.395,0.00551661011
1550.396,0.00551743759
1550.397,0.00551854027
1550.398,0.00552157313
1550.399,0.00551716192
1550.4,0.00551661011
1550.401,0.00552543299
1550.402,0.00552047044
1550.403,0.00552295195
1550.404,0.00551991863
1550.405,0.00551688578
1550.406,0.00552240061
1550.407,0.00552267628
1550.408,0.00551964296
1550.409,0.00551743759
1550.41,0.00552488165
1550.411,0.00552736316
1550.412,0.00551798893
1550.413,0.00551605877
1550.414,0.00552322762
1550.415,0.00552047044
1550.416,0.00552488165
1550.417,0.00551798893
1550.418,0.00552129745
1550.419,0.00552074611
1550.42,0.00551991863
1550.421,0.0055201943
1550.422,0.00552626047
1550.423,0.00551661011
1550.424,0.00552074611
1550.425,0.00552074611
1550.426,0.0055201943
1550.427,0.00551881641
1550.428,0.00551743759
1550.429,0.00551771326
1550.43,0.00551771326
1550.431,0.00551991863
1550.432,0.00551661011
1550.433,0.00551854027
1550.434,0.0055218488
1550.435,0.00551578309
1550.436,0.00551771326
1550.437,0.00552322762
1550.438,0.00551605877
1550.439,0.00551440427
1550.44,0.00551771326
1550.441,0.0055182646
1550.442,0.00551467994
1550.443,0.00551991863
1550.444,0.0055201943
1550.445,0.0055086147
1550.446,0.00552047044
1550.447,0.00551881641
1550.448,0.00551026873
1550.449,0.00551716192
1550.45,0.00552267628
1550.451,0.00551109575
1550.452,0.00551661011
1550.453,0.00552543299
1550.454,0.00551330158
1550.455,0.00551523129
1550.456,0.00552212447
1550.457,0.00551192323
1550.458,0.00551247457
1550.459,0.00551440427
1550.46,0.00551357772
1550.461,0.00551247457
1550.462,0.00551743759
1550.463,0.00551936729
1550.464,0.00551688578
1550.465,0.00552129745
1550.466,0.00552102178
1550.467,0.00551688578
1550.468,0.00551771326
1550.469,0.00552129745
1550.47,0.00551854027
1550.471,0.00552074611
1550.472,0.00552322762
1550.473,0.00551798893
1550.474,0.00551964296
1550.475,0.00551688578
1550.476,0.00551964296
1550.477,0.0055240551
1550.478,0.00551743759
1550.479,0.00552460598
1550.48,0.0055218488
1550.481,0.00551688578
1550.482,0.0055259848
1550.483,0.0055240551
1550.484,0.0055201943
1550.485,0.00552350329
1550.486,0.00552322762
1550.487,0.00552267628
1550.488,0.00552515732
1550.489,0.00552157313
1550.49,0.00551688578
1550.491,0.00552295195
1550.492,0.00552433077
1550.493,0.00552074611
1550.494,0.00552074611
1550.495,0.00552460598
1550.496,0.00552212447
1550.497,0.00552047044
1550.498,0.00552267628
1550.499,0.00552570913
1550.5,0.00551991863
1550.501,0.00552350329
1550.502,0.00552212447
1550.503,0.00552350329
1550.504,0.00552433077
1550.505,0.00552570913
1550.506,0.00552240061
1550.507,0.00552212447
1550.508,0.00551964296
1550.509,0.00552047044
1550.51,0.00551743759
1550.511,0.00551909208
1550.512,0.00551495561
1550.513,0.00551964296
1550.514,0.00552433077
1550.515,0.00551495561
1550.516,0.00551854027
1550.517,0.00552322762
1550.518,0.00551578309
1550.519,0.00552212447
1550.52,0.00551743759
1550.521,0.00551385339
1550.522,0.00551633444
1550.523,0.00551798893
1550.524,0.00551357772
1550.525,0.00551247457
1550.526,0.00551798893
1550.527,0.00551247457
1550.528,0.00551357772
1550.529,0.00551550742
1550.53,0.00552129745
1550.531,0.0055121989
1550.532,0.00550971692
1550.533,0.00551661011
1550.534,0.00551440427
1550.535,0.00551633444
1550.536,0.00551578309
1550.537,0.00551164709
1550.538,0.00551247457
1550.539,0.0055141286
1550.54,0.0055105444
1550.541,0.00551467994
1550.542,0.00551302591
1550.543,0.00550971692
1550.544,0.00551247457
1550.545,0.00551330158
1550.546,0.00550530571
1550.547,0.00551661011
1550.548,0.00551082008
1550.549,0.00550696021
1550.55,0.00550916558
1550.551,0.00551578309
1550.552,0.00551798893
1550.553,0.00551247457
1550.554,0.00551716192
1550.555,0.00551026873
1550.556,0.00550971692
1550.557,0.00551495561
1550.558,0.00550971692
1550.559,0.0055086147
1550.56,0.00551302591
1550.561,0.00551302591
1550.562,0.00551247457
1550.563,0.0055080629
1550.564,0.00551137142
1550.565,0.00551164709
1550.566,0.0055121989
1550.567,0.00551385339
1550.568,0.00551275024
1550.569,0.00551302591
1550.57,0.00551661011
1550.571,0.00551743759
1550.572,0.0055105444
1550.573,0.00551688578
1550.574,0.00551743759
1550.575,0.00551275024
1550.576,0.00551854027
1550.577,0.00551881641
1550.578,0.00551605877
1550.579,0.00551688578
1550.58,0.00552129745
1550.581,0.00551523129
1550.582,0.00551440427
1550.583,0.00551771326
1550.584,0.00551743759
1550.585,0.00551743759
1550.586,0.00551688578
1550.587,0.00551798893
1550.588,0.00551854027
1550.589,0.00551633444
1550.59,0.00551605877
1550.591,0.00551330158
1550.592,0.00551661011
1550.593,0.00551330158
1550.594,0.00551716192
1550.595,0.00551743759
1550.596,0.0055182646
1550.597,0.00551275024
1550.598,0.0055201943
1550.599,0.00551881641
1550.6,0.0055182646
1550.601,0.00551743759
1550.602,0.00551716192
1550.603,0.00551633444
1550.604,0.00551771326
1550.605,0.00551578309
1550.606,0.00551467994
1550.607,0.00551798893
1550.608,0.00551661011
1550.609,0.00552157313
1550.61,0.00551633444
1550.611,0.00551357772
1550.612,0.00552240061
1550.613,0.00551743759
1550.614,0.00551881641
1550.615,0.00552074611
1550.616,0.00551523129
1550.617,0.00551523129
1550.618,0.00551798893
1550.619,0.00551743759
1550.62,0.0055105444
1550.621,0.00551743759
1550.622,0.00551688578
1550.623,0.00551661011
1550.624,0.00551440427
1550.625,0.00551909208
1550.626,0.00551357772
1550.627,0.00551164709
1550.628,0.00551881641
1550.629,0.00551440427
1550.63,0.00550889038
1550.631,0.00551247457
1550.632,0.00551467994
1550.633,0.00550558139
1550.634,0.00551330158
1550.635,0.00551771326
1550.636,0.00550392689
1550.637,0.00551523129
1550.638,0.00551688578
1550.639,0.00551275024
1550.64,0.00550751155
1550.641,0.0055105444
1550.642,0.00550751155
1550.643,0.00550833903
1550.644,0.00551026873
1550.645,0.00550944125
1550.646,0.00550833903
1550.647,0.00551026873
1550.648,0.00550668454
1550.649,0.00550475391
1550.65,0.00550944125
1550.651,0.00551026873
1550.652,0.00550199719
1550.653,0.00550475391
1550.654,0.00550613273
1550.655,0.00550144585
1550.656,0.00550392689
1550.657,0.00550061837
1550.658,0.00550420256
1550.659,0.00550310034
1550.66,0.00550585706
1550.661,0.00550392689
1550.662,0.00550282421
1550.663,0.00550696021
1550.664,0.00550337601
1550.665,0.00550530571
1550.666,0.00550723588
1550.667,0.00550365169
1550.668,0.00550365169
1550.669,0.00550420256
1550.67,0.00550833903
1550.671,0.00550696021
1550.672,0.00550420256
1550.673,0.0055080629
1550.674,0.00550392689
1550.675,0.00550475391
1550.676,0.00550503004
1550.677,0.00550558139
1550.678,0.00550420256
1550.679,0.00550530571
1550.68,0.00550889038
1550.681,0.00550944125
1550.682,0.00550558139
1550.683,0.0055064084
1550.684,0.00550696021
1550.685,0.00550420256
1550.686,0.00550585706
1550.687,0.0055086147
1550.688,0.00550751155
1550.689,0.00550530571
1550.69,0.00550585706
1550.691,0.00550392689
1550.692,0.00550365169
1550.693,0.00550668454
1550.694,0.00550503004
1550.695,0.00550392689
1550.696,0.00550282421
1550.697,0.00550116971
1550.698,0.00550365169
1550.699,0.00550447823
1550.7,0.00550172152
1550.701,0.00550282421
1550.702,0.00550585706
1550.703,0.00550282421
1550.704,0.00549868867
1550.705,0.00550530571
1550.706,0.00550227286
1550.707,0.00549923955
1550.708,0.00550172152
1550.709,0.00549730984
1550.71,0.0054967585
1550.711,0.00550310034
1550.712,0.00549703417
1550.713,0.00549510401
1550.714,0.0055003427
1550.715,0.00548765995
1550.716,0.00549455266
1550.717,0.00550172152
1550.718,0.00549813733
1550.719,0.00549234683
1550.72,0.005498413
1550.721,0.00549537968
1550.722,0.00548710814
1550.723,0.00549234683
1550.724,0.00549482834
1550.725,0.00549096847
1550.726,0.00549427653
1550.727,0.00549289864
1550.728,0.00548379915
1550.729,0.00549179548
1550.73,0.00550530571
1550.731,0.00549427653
1550.732,0.00548655679
1550.733,0.005498413
1550.734,0.00549014099
1550.735,0.0054849023
1550.736,0.00549372518
1550.737,0.00548600545
1550.738,0.00548545364
1550.739,0.00548931397
1550.74,0.00548600545
1550.741,0.00548379915
1550.742,0.00548848696
1550.743,0.0054829726
1550.744,0.00548104243
1550.745,0.00548572978
1550.746,0.00548517797
1550.747,0.00547911227
1550.748,0.00548655679
1550.749,0.00548876217
1550.75,0.00548545364
1550.751,0.00548131811
1550.752,0.00548435096
1550.753,0.00548683247
1550.754,0.0054829726
1550.755,0.00548628112
1550.756,0.00548517797
1550.757,0.00548159378
1550.758,0.00548407529
1550.759,0.00548545364
1550.76,0.00548242126
1550.761,0.00548545364
1550.762,0.00548848696
1550.763,0.00548269693
1550.764,0.0054829726
1550.765,0.00547993928
1550.766,0.00549014099
1550.767,0.00547718257
1550.768,0.00548903784
1550.769,0.00547993928
1550.77,0.00549041666
1550.771,0.00548655679
1550.772,0.00548407529
1550.773,0.00549234683
1550.774,0.00548628112
1550.775,0.00548462663
1550.776,0.00549041666
1550.777,0.00550392689
1550.778,0.00547745824
1550.779,0.00549565535
1550.78,0.00548049109
1550.781,0.00548710814
1550.782,0.00549317431
1550.783,0.00548848696
1550.784,0.00549069233
1550.785,0.00549620716
1550.786,0.00550144585
1550.787,0.00549620716
1550.788,0.00550006703
1550.789,0.00549979135
1550.79,0.0054967585
1550.791,0.00550392689
1550.792,0.00549923955
1550.793,0.00549813733
1550.794,0.00549813733
1550.795,0.00549565535
1550.796,0.00549758552
1550.797,0.00549813733
1550.798,0.00550144585
1550.799,0.00550337601
1550.8,0.00549923955
1550.801,0.00549758552
1550.802,0.00550061837
1550.803,0.00549979135
1550.804,0.00550227286
1550.805,0.00549979135
1550.806,0.00550227286
1550.807,0.00550144585
1550.808,0.00549951522
1550.809,0.00550503004
1550.81,0.00550144585
1550.811,0.00550392689
1550.812,0.00550282421
1550.813,0.00550447823
1550.814,0.00550530571
1550.815,0.00550971692
1550.816,0.00550503004
1550.817,0.00550475391
1550.818,0.00550310034
1550.819,0.00550723588
1550.82,0.0055121989
1550.821,0.0055064084
1550.822,0.00550723588
1550.823,0.0055086147
1550.824,0.0055080629
1550.825,0.0055105444
1550.826,0.0055105444
1550.827,0.0055086147
1550.828,0.00551109575
1550.829,0.00550447823
1550.83,0.0055080629
1550.831,0.0055121989
1550.832,0.00551082008
1550.833,0.0055105444
1550.834,0.00551109575
1550.835,0.00550833903
1550.836,0.00551302591
1550.837,0.00551357772
1550.838,0.00551330158
1550.839,0.00551302591
1550.84,0.00551385339
1550.841,0.00551440427
1550.842,0.00551881641
1550.843,0.00551275024
1550.844,0.00551385339
1550.845,0.00551467994
1550.846,0.00551192323
1550.847,0.00550944125
1550.848,0.00551247457
1550.849,0.00551716192
1550.85,0.00550944125
1550.851,0.00551302591
1550.852,0.00551164709
1550.853,0.00551661011
1550.854,0.00552157313
1550.855,0.00551523129
1550.856,0.00551302591
1550.857,0.00551964296
1550.858,0.00551633444
1550.859,0.00551633444
1550.86,0.00552074611
1550.861,0.00551798893
1550.862,0.0055182646
1550.863,0.00552074611
1550.864,0.00552102178
1550.865,0.00552129745
1550.866,0.0055218488
1550.867,0.00551854027
1550.868,0.00552047044
1550.869,0.00552433077
1550.87,0.00551854027
1550.871,0.00551164709
1550.872,0.0055218488
1550.873,0.0055182646
1550.874,0.00551385339
1550.875,0.00552626047
1550.876,0.00551964296
1550.877,0.00551523129
1550.878,0.00551578309
1550.879,0.00550833903
1550.88,0.00552791497
1550.881,0.00551991863
1550.882,0.00553012034
1550.883,0.00551909208
1550.884,0.00552791497
1550.885,0.00552377896
1550.886,0.00552488165
1550.887,0.00552819064
1550.888,0.0055276393
1550.889,0.00553177483
1550.89,0.00552791497
1550.891,0.0055259848
1550.892,0.00553342933
1550.893,0.00552929379
1550.894,0.00553149916
1550.895,0.00553067168
1550.896,0.00553039601
1550.897,0.00553039601
1550.898,0.00553673785
1550.899,0.00553039601
1550.9,0.00553122349
1550.901,0.00553535903
1550.902,0.00553067168
1550.903,0.00552901765
1550.904,0.00553453248
1550.905,0.00553067168
1550.906,0.00553453248
1550.907,0.00553591037
1550.908,0.00553453248
1550.909,0.00553315366
1550.91,0.00553673785
1550.911,0.005533705
1550.912,0.0055356347
1550.913,0.00553453248
1550.914,0.00553618651
1550.915,0.00553398067
1550.916,0.00553342933
1550.917,0.00553260231
1550.918,0.00553149916
1550.919,0.00553342933
1550.92,0.00553205051
1550.921,0.00553342933
1550.922,0.00553122349
1550.923,0.00553260231
1550.924,0.00553701352
1550.925,0.00553508336
1550.926,0.00553398067
1550.927,0.00553425634
1550.928,0.00553149916
1550.929,0.00553287799
1550.93,0.00553012034
1550.931,0.00553342933
1550.932,0.00553342933
1550.933,0.00553315366
1550.934,0.00553398067
1550.935,0.0055356347
1550.936,0.00553453248
1550.937,0.00553315366
1550.938,0.00552846631
1550.939,0.00553480769
1550.94,0.00552846631
1550.941,0.00553012034
1550.942,0.005533705
1550.943,0.00552736316
1550.944,0.00553094782
1550.945,0.00553315366
1550.946,0.00552929379
1550.947,0.00553094782
1550.948,0.00553177483
1550.949,0.00552708749
1550.95,0.00552350329
1550.951,0.0055259848
1550.952,0.00552570913
1550.953,0.00552570913
1550.954,0.00552708749
1550.955,0.00552874198
1550.956,0.00552543299
1550.957,0.00552736316
1550.958,0.00552929379
1550.959,0.00552653614
1550.96,0.00553067168
1550.961,0.00552681182
1550.962,0.00552350329
1550.963,0.00552488165
1550.964,0.005529569
1550.965,0.00552157313
1550.966,0.00552212447
1550.967,0.00552626047
1550.968,0.00552322762
1550.969,0.00552157313
1550.97,0.00552350329
1550.971,0.0055218488
1550.972,0.00552240061
1550.973,0.00552350329
1550.974,0.00552047044
1550.975,0.00551936729
1550.976,0.00552212447
1550.977,0.00551964296
1550.978,0.00551661011
1550.979,0.00551743759
1550.98,0.00551798893
1550.981,0.00551798893
1550.982,0.00551771326
1550.983,0.00551275024
1550.984,0.00551936729
1550.985,0.00551771326
1550.986,0.00551247457
1550.987,0.00551633444
1550.988,0.00551357772
1550.989,0.00551082008
1550.99,0.00551385339
1550.991,0.00551357772
1550.992,0.00551247457
1550.993,0.00551357772
1550.994,0.00551109575
1550.995,0.00551302591
1550.996,0.00551330158
1550.997,0.0055086147
1550.998,0.0055105444
1550.999,0.00551302591
1551.0,0.0055099926
